File: XRD/310-07.uxd
;content of D:\data\result\mecham\???\20231225-89741\310-07.raw - (Diffrac Plus V4 file)
_FILEVERSION = 3
_SAMPLE
_+SAMPLE
_USER = Lab Manager
_GONIOMETER_CODE = 21
_STAGE_CODE = 7
; Goniometer : D8 theta/theta, stage : Chi drive
_SAMPLE_CHANGER_CODE = 0
_ATTACHMENTS_CODE = 0
_GONIOMETER_RADIUS = 280
_MONOCHROMATOR = 0
; Incident beam monochromator : None
_BETA_FILTER = N
_ANALYZER_CODE = 0
; Received beam analyzer : None
_DATEMEASURED = 25-Dec-2023 10:04:43
_RUNTIME = 11.19268
_WL_UNIT = A
_WL1 = 1.5406
_WL2 = 1.54439
_WL3 = 1.39222
_WLRATIO = 0.5
_ANODE = Cu
_V4_INF_USER = Lab Manager
_V4_INF_CREATOR = V5Converter
_V4_INF_CREATOR_VERSION = 4.4.16.0

; Data for range 1
_DRIVE = COUPLED
_STEPTIME = 57.6
_STEPSIZE = 0.019721
_STEPMODE = C
_START = 20
_THETA = 10
_2THETA = 20
_KHI = 0
_PHI = 0
_DETECTORSLIT = out
_AUX1 = 0
_TIMESTARTED = 0
_KV = 40
_MA = 40
_RANGE_WL = 1.5406
_3DPLANE = 0
_V4_PSD2THETA = 9999
_V4_PSDCHANNEL1 = 0
_V4_PSDAPERTURE = 2.839876
_V4_PSDTYPE = 5
_V4_PSDFIXED = 0
_V4_COUNTERS_MASK = 1
_V4_DRIVES_MASK = 0
_V4_ENCODERS_MASK = 0
_2THETACOUNTS = 1
; 2THETA	Cnt2_D1
20	153
20.2367	145
20.4733	134
20.71	152
20.9466	142
21.1833	132
21.4199	142
21.6566	127
21.8933	141
22.1299	144
22.3666	121
22.6032	152
22.8399	141
23.0765	144
23.3132	118
23.5498	120
23.7865	167
24.0232	240
24.2598	160
24.4965	118
24.7331	140
24.9698	142
25.2064	133
25.4431	123
25.6798	130
25.9164	122
26.1531	110
26.3897	139
26.6264	124
26.863	97
27.0997	127
27.3363	154
27.573	129
27.8097	135
28.0463	144
28.283	138
28.5196	136
28.7563	144
28.9929	115
29.2296	144
29.4663	123
29.7029	125
29.9396	146
30.1762	199
30.4129	130
30.6495	129
30.8862	126
31.1228	123
31.3595	137
31.5962	142
31.8328	115
32.0695	121
32.3061	120
32.5428	106
32.7794	159
33.0161	505
33.2528	243
33.4894	130
33.7261	123
33.9627	141
34.1994	130
34.436	116
34.6727	126
34.9094	155
35.146	183
35.3827	630
35.6193	639
35.856	163
36.0926	156
36.3293	136
36.5659	134
36.8026	200
37.0393	1476
37.2759	952
37.5126	147
37.7492	140
37.9859	134
38.2225	155
38.4592	136
38.6959	154
38.9325	529
39.1692	1988
39.4058	506
39.6425	161
39.8791	133
40.1158	155
40.3524	130
40.5891	462
40.8258	578
41.0624	154
41.2991	141
41.5357	145
41.7724	138
42.009	110
42.2457	136
42.4824	117
42.719	130
42.9557	120
43.1923	201
43.429	408
43.6656	352
43.9023	145
44.1389	147
44.3756	113
44.6123	119
44.8489	121
45.0856	107
45.3222	119
45.5589	134
45.7955	125
46.0322	111
46.2689	114
46.5055	122
46.7422	136
46.9788	114
47.2155	127
47.4521	103
47.6888	122
47.9255	123
48.1621	113
48.3988	131
48.6354	133
48.8721	134
49.1087	141
49.3454	270
49.582	164
49.8187	118
50.0554	135
50.292	143
50.5287	164
50.7653	241
51.002	161
51.2386	125
51.4753	119
51.712	122
51.9486	115
52.1853	129
52.4219	121
52.6586	113
52.8952	115
53.1319	141
53.3685	150
53.6052	195
53.8419	240
54.0785	250
54.3152	133
54.5518	132
54.7885	142
55.0251	110
55.2618	142
55.4985	149
55.7351	119
55.9718	136
56.2084	142
56.4451	142
56.6817	193
56.9184	676
57.155	1371
57.3917	487
57.6284	225
57.865	121
58.1017	115
58.3383	128
58.575	102
58.8116	114
59.0483	127
59.285	143
59.5216	137
59.7583	109
59.9949	113
60.2316	130
60.4682	111
60.7049	127
60.9416	130
61.1782	124
61.4149	136
61.6515	124
61.8882	152
62.1248	257
62.3615	509
62.5981	281
62.8348	190
63.0715	172
63.3081	152
63.5448	125
63.7814	161
64.0181	180
64.2547	127
64.4914	123
64.7281	108
64.9647	141
65.2014	127
65.438	127
65.6747	137
65.9113	116
66.148	116
66.3846	138
66.6213	133
66.858	137
67.0946	125
67.3313	129
67.5679	108
67.8046	120
68.0412	137
68.2779	114
68.5146	137
68.7512	128
68.9879	132
69.2245	103
69.4612	122
69.6978	133
69.9345	146
70.1711	149
70.4078	128
70.6445	143
70.8811	129
71.1178	139
71.3544	148
71.5911	168
71.8277	412
72.0644	250
72.3011	176
72.5377	147
72.7744	160
73.011	147
73.2477	137
73.4843	156
73.721	145
73.9577	167
74.1943	313
74.431	247
74.6676	323
74.9043	234
75.1409	177
75.3776	165
75.6142	161
75.8509	148
76.0876	145
76.3242	140
76.5609	172
76.7975	132
77.0342	127
77.2708	168
77.5075	155
77.7442	143
77.9808	159
78.2175	132
78.4541	181
78.6908	197
78.9274	256
79.1641	542
79.4007	410
79.6374	207
79.8741	149
80.1107	163
80.3474	145
80.584	153
80.8207	151
81.0573	142
81.294	148
81.5307	147
81.7673	136
82.004	145
82.2406	144
82.4773	124
82.7139	143
82.9506	146
83.1873	142
83.4239	148
83.6606	173
83.8972	152
84.1339	205
84.3705	211
84.6072	198
84.8438	164
85.0805	178
85.3172	146
85.5538	169
85.7905	148
86.0271	133
86.2638	123
86.5004	160
86.7371	162
86.9738	162
87.2104	154
87.4471	136
87.6837	128
87.9204	172
88.157	202
88.3937	251
88.6303	181
88.867	126
89.1037	125
89.3403	128
89.577	159
89.8136	234
89.9911	221