File: XRD/310-01.txt
?
20.0     1
20.23665 11
20.47331 7
20.70996 20
20.94662 7
21.18328 7
21.41993 16
21.65659 16
21.89325 20
22.12990 17
22.36656 17
22.60322 14
22.83987 14
23.07653 14
23.31318 17
23.54984 4
23.78650 22
24.02315 28
24.25981 94
24.49647 171
24.73312 27
24.96978 15
25.20644 10
25.44309 13
25.67975 15
25.91640 8
26.15306 7
26.38972 7
26.62637 11
26.86303 11
27.09969 15
27.33634 21
27.57300 20
27.80966 16
28.04631 12
28.28297 26
28.51963 5
28.75628 18
28.99294 13
29.22959 27
29.46625 16
29.70291 17
29.93956 22
30.17622 31
30.41288 13
30.64953 20
30.88619 18
31.12285 11
31.35950 18
31.59616 12
31.83281 24
32.06947 0
32.30613 19
32.54278 12
32.77944 22
33.01610 29
33.25275 105
33.48941 229
33.72607 52
33.96272 34
34.19938 18
34.43603 10
34.67269 3
34.90935 12
35.14600 19
35.38266 27
35.61932 36
35.85597 125
36.09263 134
36.32928 36
36.56594 23
36.80260 20
37.03926 23
37.27591 16
37.51257 20
37.74922 14
37.98588 18
38.22254 9
38.45919 24
38.69585 8
38.93251 16
39.16916 16
39.40582 13
39.64247 18
39.87913 25
40.11579 8
40.35244 20
40.58910 9
40.82576 13
41.06241 50
41.29907 101
41.53572 34
41.77238 16
42.00904 14
42.24570 19
42.48235 10
42.71901 21
42.95566 26
43.19232 24
43.42898 74
43.66563 2193
43.90229 224
44.13895 57
44.37560 38
44.61226 20
44.84891 14
45.08557 12
45.32223 12
45.55888 10
45.79554 11
46.0322  9
46.26885 17
46.50551 14
46.74217 9
46.97882 10
47.21548 15
47.45214 14
47.68879 23
47.92545 9
48.16210 13
48.39876 14
48.63542 19
48.87207 20
49.10873 13
49.34539 20
49.58204 39
49.81870 40
50.05535 57
50.29201 47
50.52867 74
50.76532 901
51.00198 654
51.23864 67
51.47529 38
51.71195 22
51.94861 18
52.18526 19
52.42192 9
52.65858 2
52.89523 9
53.13189 16
53.36854 14
53.60520 11
53.84186 21
54.07851 15
54.31517 38
54.55183 76
54.78848 58
55.02514 22
55.26179 17
55.49845 19
55.73511 18
55.97176 14
56.20842 13
56.44508 18
56.68174 20
56.91839 9
57.15505 16
57.39170 23
57.62836 12
57.86502 24
58.10167 27
58.33833 20
58.57498 9
58.81164 23
59.04830 14
59.28495 8
59.52161 10
59.75827 10
59.99492 6
60.23158 8
60.46823 14
60.70489 8
60.94155 14
61.17820 15
61.41486 0
61.65152 17
61.88818 11
62.12483 7
62.36149 18
62.59814 16
62.83480 48
63.07146 57
63.30811 41
63.54477 10
63.78142 8
64.01808 11
64.25474 26
64.49140 17
64.72805 18
64.96471 32
65.20137 13
65.43802 20
65.67468 12
65.91133 26
66.14799 17
66.38465 11
66.62130 17
66.85796 11
67.09462 16
67.33127 13
67.56793 19
67.80458 17
68.04124 14
68.27790 21
68.51455 12
68.75121 29
68.98786 13
69.22452 21
69.46118 18
69.69783 14
69.93449 12
70.17115 15
70.40780 17
70.64446 10
70.88111 12
71.11777 17
71.35443 5
71.59108 15
71.82774 10
72.0644  29
72.30105 12
72.53771 18
72.77436 21
73.01102 16
73.24768 12
73.48434 11
73.72100 18
73.95765 20
74.19431 10
74.43096 46
74.66762 420
74.90428 330
75.14093 35
75.37759 20
75.61425 1
75.85090 21
76.08756 10
76.32421 20
76.56087 4
76.79753 22
77.03418 4
77.27084 12
77.5075  20
77.74415 6
77.98081 12
78.21746 9
78.45412 6
78.69078 13
78.92743 13
79.16409 7
79.40074 14
79.63740 0
79.87406 16
80.11071 8
80.34737 10
80.58403 9
80.82068 14
81.05734 8
81.29399 9
81.53065 11
81.76731 11
82.00396 12
82.24062 13
82.47728 6
82.71393 12
82.95059 10
83.18725 17
83.42391 12
83.66056 5
83.89722 15
84.13388 15
84.37053 12
84.60719 5
84.84384 12
85.08050 17
85.31716 10
85.55381 14
85.79047 13
86.02713 17
86.26378 21
86.50044 18
86.73709 11
86.97375 19
87.21041 11
87.44706 14
87.68372 20
87.92038 17
88.15703 13
88.39369 4
88.63034 22
88.86700 18
89.10366 8
89.34031 19
89.57697 24
89.81362 26
89.99111 21