File: XRD/310-01.uxd
;content of D:\data\result\mecham\???\20231225-89741\310-01.raw - (Diffrac Plus V4 file)
_FILEVERSION = 3
_SAMPLE
_+SAMPLE
_USER = Lab Manager
_GONIOMETER_CODE = 21
_STAGE_CODE = 7
; Goniometer : D8 theta/theta, stage : Chi drive
_SAMPLE_CHANGER_CODE = 0
_ATTACHMENTS_CODE = 0
_GONIOMETER_RADIUS = 280
_MONOCHROMATOR = 0
; Incident beam monochromator : None
_BETA_FILTER = N
_ANALYZER_CODE = 0
; Received beam analyzer : None
_DATEMEASURED = 25-Dec-2023 09:45:02
_RUNTIME = 11.28583
_WL_UNIT = A
_WL1 = 1.5406
_WL2 = 1.54439
_WL3 = 1.39222
_WLRATIO = 0.5
_ANODE = Cu
_V4_INF_USER = Lab Manager
_V4_INF_CREATOR = V5Converter
_V4_INF_CREATOR_VERSION = 4.4.16.0

; Data for range 1
_DRIVE = COUPLED
_STEPTIME = 57.6
_STEPSIZE = 0.019721
_STEPMODE = C
_START = 20
_THETA = 10
_2THETA = 20
_KHI = 0
_PHI = 0
_DETECTORSLIT = out
_AUX1 = 0
_TIMESTARTED = 0
_KV = 40
_MA = 40
_RANGE_WL = 1.5406
_3DPLANE = 0
_V4_PSD2THETA = 9999
_V4_PSDCHANNEL1 = 0
_V4_PSDAPERTURE = 2.839876
_V4_PSDTYPE = 5
_V4_PSDFIXED = 0
_V4_COUNTERS_MASK = 1
_V4_DRIVES_MASK = 0
_V4_ENCODERS_MASK = 0
_2THETACOUNTS = 1
; 2THETA	Cnt2_D1
20	140
20.2367	154
20.4733	146
20.71	144
20.9466	129
21.1833	128
21.4199	134
21.6566	140
21.8933	147
22.1299	145
22.3666	131
22.6032	129
22.8399	144
23.0765	134
23.3132	128
23.5498	122
23.7865	119
24.0232	188
24.2598	243
24.4965	414
24.7331	150
24.9698	129
25.2064	117
25.4431	147
25.6798	112
25.9164	130
26.1531	120
26.3897	128
26.6264	139
26.863	114
27.0997	134
27.3363	144
27.573	150
27.8097	116
28.0463	122
28.283	134
28.5196	128
28.7563	144
28.9929	127
29.2296	152
29.4663	121
29.7029	134
29.9396	112
30.1762	134
30.4129	104
30.6495	112
30.8862	142
31.1228	117
31.3595	124
31.5962	123
31.8328	125
32.0695	125
32.3061	129
32.5428	121
32.7794	144
33.0161	148
33.2528	244
33.4894	486
33.7261	215
33.9627	156
34.1994	146
34.436	130
34.6727	127
34.9094	121
35.146	141
35.3827	138
35.6193	182
35.856	281
36.0926	305
36.3293	167
36.5659	153
36.8026	138
37.0393	141
37.2759	132
37.5126	153
37.7492	134
37.9859	128
38.2225	123
38.4592	130
38.6959	111
38.9325	116
39.1692	125
39.4058	121
39.6425	146
39.8791	142
40.1158	121
40.3524	155
40.5891	116
40.8258	115
41.0624	150
41.2991	255
41.5357	208
41.7724	154
42.009	138
42.2457	130
42.4824	146
42.719	135
42.9557	148
43.1923	143
43.429	229
43.6656	2556
43.9023	1627
44.1389	205
44.3756	165
44.6123	157
44.8489	129
45.0856	110
45.3222	118
45.5589	119
45.7955	121
46.0322	132
46.2689	145
46.5055	128
46.7422	113
46.9788	136
47.2155	128
47.4521	123
47.6888	123
47.9255	115
48.1621	115
48.3988	113
48.6354	121
48.8721	105
49.1087	108
49.3454	135
49.582	154
49.8187	164
50.0554	207
50.292	165
50.5287	183
50.7653	1049
51.002	1312
51.2386	256
51.4753	144
51.712	130
51.9486	121
52.1853	114
52.4219	108
52.6586	102
52.8952	99
53.1319	119
53.3685	111
53.6052	103
53.8419	122
54.0785	118
54.3152	149
54.5518	206
54.7885	185
55.0251	145
55.2618	115
55.4985	138
55.7351	98
55.9718	105
56.2084	117
56.4451	122
56.6817	100
56.9184	114
57.155	99
57.3917	112
57.6284	95
57.865	123
58.1017	117
58.3383	97
58.575	105
58.8116	118
59.0483	105
59.285	106
59.5216	105
59.7583	104
59.9949	110
60.2316	87
60.4682	117
60.7049	104
60.9416	114
61.1782	100
61.4149	90
61.6515	117
61.8882	111
62.1248	114
62.3615	92
62.5981	135
62.8348	156
63.0715	172
63.3081	160
63.5448	116
63.7814	108
64.0181	105
64.2547	133
64.4914	122
64.7281	135
64.9647	143
65.2014	107
65.438	102
65.6747	118
65.9113	110
66.148	127
66.3846	105
66.6213	133
66.858	120
67.0946	116
67.3313	110
67.5679	114
67.8046	111
68.0412	126
68.2779	113
68.5146	109
68.7512	143
68.9879	122
69.2245	102
69.4612	120
69.6978	106
69.9345	104
70.1711	115
70.4078	106
70.6445	115
70.8811	101
71.1178	122
71.3544	106
71.5911	111
71.8277	95
72.0644	97
72.3011	116
72.5377	121
72.7744	136
73.011	114
73.2477	114
73.4843	118
73.721	126
73.9577	128
74.1943	107
74.431	153
74.6676	568
74.9043	707
75.1409	305
75.3776	130
75.6142	102
75.8509	116
76.0876	113
76.3242	131
76.5609	113
76.7975	121
77.0342	113
77.2708	115
77.5075	124
77.7442	111
77.9808	100
78.2175	126
78.4541	108
78.6908	115
78.9274	99
79.1641	86
79.4007	124
79.6374	94
79.8741	113
80.1107	114
80.3474	110
80.584	116
80.8207	113
81.0573	93
81.294	104
81.5307	112
81.7673	110
82.004	104
82.2406	110
82.4773	86
82.7139	91
82.9506	105
83.1873	117
83.4239	119
83.6606	108
83.8972	114
84.1339	98
84.3705	94
84.6072	94
84.8438	109
85.0805	106
85.3172	99
85.5538	113
85.7905	82
86.0271	84
86.2638	105
86.5004	111
86.7371	114
86.9738	95
87.2104	105
87.4471	116
87.6837	127
87.9204	117
88.157	97
88.3937	93
88.6303	116
88.867	101
89.1037	97
89.3403	106
89.577	120
89.8136	116
89.9911	101