File: XRD/310-07.txt
?
20.0     8
20.23665 7
20.47331 6
20.70996 7
20.94662 9
21.18328 5
21.41993 10
21.65659 6
21.89325 3
22.12990 12
22.36656 5
22.60322 15
22.83987 7
23.07653 9
23.31318 9
23.54984 11
23.78650 29
24.02315 99
24.25981 27
24.49647 26
24.73312 22
24.96978 19
25.20644 15
25.44309 9
25.67975 19
25.91640 15
26.15306 3
26.38972 23
26.62637 18
26.86303 6
27.09969 14
27.33634 20
27.57300 14
27.80966 13
28.04631 28
28.28297 18
28.51963 17
28.75628 11
28.99294 21
29.22959 21
29.46625 15
29.70291 19
29.93956 28
30.17622 48
30.41288 5
30.64953 11
30.88619 7
31.12285 9
31.35950 12
31.59616 11
31.83281 3
32.06947 10
32.30613 6
32.54278 6
32.77944 18
33.01610 324
33.25275 23
33.48941 9
33.72607 8
33.96272 19
34.19938 7
34.43603 4
34.67269 15
34.90935 19
35.14600 26
35.38266 401
35.61932 242
35.85597 23
36.09263 18
36.32928 0
36.56594 12
36.80260 84
37.03926 1052
37.27591 339
37.51257 7
37.74922 6
37.98588 11
38.22254 7
38.45919 10
38.69585 13
38.93251 381
39.16916 1297
39.40582 79
39.64247 24
39.87913 9
40.11579 23
40.35244 19
40.58910 282
40.82576 225
41.06241 17
41.29907 18
41.53572 9
41.77238 15
42.00904 5
42.24570 12
42.48235 24
42.71901 6
42.95566 24
43.19232 51
43.42898 234
43.66563 142
43.90229 34
44.13895 21
44.37560 10
44.61226 11
44.84891 15
45.08557 17
45.32223 13
45.55888 20
45.79554 13
46.0322  12
46.26885 17
46.50551 13
46.74217 12
46.97882 17
47.21548 17
47.45214 25
47.68879 11
47.92545 14
48.16210 14
48.39876 16
48.63542 13
48.87207 22
49.10873 35
49.34539 131
49.58204 17
49.81870 20
50.05535 18
50.29201 28
50.52867 52
50.76532 93
51.00198 18
51.23864 8
51.47529 6
51.71195 6
51.94861 14
52.18526 16
52.42192 14
52.65858 9
52.89523 16
53.13189 18
53.36854 39
53.60520 50
53.84186 114
54.07851 68
54.31517 16
54.55183 21
54.78848 21
55.02514 6
55.26179 19
55.49845 26
55.73511 10
55.97176 24
56.20842 23
56.44508 25
56.68174 67
56.91839 543
57.15505 814
57.39170 152
57.62836 41
57.86502 21
58.10167 9
58.33833 12
58.57498 13
58.81164 6
59.04830 17
59.28495 16
59.52161 15
59.75827 10
59.99492 8
60.23158 14
60.46823 18
60.70489 16
60.94155 9
61.17820 13
61.41486 9
61.65152 13
61.88818 38
62.12483 150
62.36149 221
62.59814 80
62.83480 63
63.07146 30
63.30811 17
63.54477 12
63.78142 35
64.01808 22
64.25474 17
64.49140 9
64.72805 4
64.96471 20
65.20137 4
65.43802 3
65.67468 14
65.91133 7
66.14799 3
66.38465 9
66.62130 7
66.85796 12
67.09462 7
67.33127 3
67.56793 5
67.80458 5
68.04124 15
68.27790 5
68.51455 12
68.75121 2
68.98786 5
69.22452 2
69.46118 15
69.69783 8
69.93449 10
70.17115 15
70.40780 8
70.64446 9
70.88111 10
71.11777 19
71.35443 12
71.59108 39
71.82774 254
72.0644  22
72.30105 33
72.53771 22
72.77436 24
73.01102 16
73.24768 18
73.48434 17
73.72100 16
73.95765 44
74.19431 152
74.43096 59
74.66762 137
74.90428 40
75.14093 26
75.37759 57
75.61425 8
75.85090 15
76.08756 12
76.32421 17
76.56087 14
76.79753 13
77.03418 15
77.27084 19
77.5075  18
77.74415 6
77.98081 13
78.21746 12
78.45412 19
78.69078 43
78.92743 97
79.16409 353
79.40074 104
79.63740 16
79.87406 2
80.11071 8
80.34737 13
80.58403 10
80.82068 10
81.05734 3
81.29399 9
81.53065 0
81.76731 5
82.00396 7
82.24062 7
82.47728 3
82.71393 13
82.95059 16
83.18725 10
83.42391 15
83.66056 11
83.89722 22
84.13388 63
84.37053 49
84.60719 26
84.84384 34
85.08050 16
85.31716 12
85.55381 13
85.79047 8
86.02713 7
86.26378 20
86.50044 16
86.73709 30
86.97375 16
87.21041 4
87.44706 17
87.68372 14
87.92038 21
88.15703 45
88.39369 89
88.63034 17
88.86700 5
89.10366 7
89.34031 14
89.57697 31
89.81362 86
89.99111 110