File: XRD/600-02.uxd
;content of D:\data\result\mecham\???\20231225-89741\600-02.raw - (Diffrac Plus V4 file)
_FILEVERSION = 3
_SAMPLE
_+SAMPLE
_USER = Lab Manager
_GONIOMETER_CODE = 21
_STAGE_CODE = 7
; Goniometer : D8 theta/theta, stage : Chi drive
_SAMPLE_CHANGER_CODE = 0
_ATTACHMENTS_CODE = 0
_GONIOMETER_RADIUS = 280
_MONOCHROMATOR = 0
; Incident beam monochromator : None
_BETA_FILTER = N
_ANALYZER_CODE = 0
; Received beam analyzer : None
_DATEMEASURED = 25-Dec-2023 10:24:13
_RUNTIME = 11.18869
_WL_UNIT = A
_WL1 = 1.5406
_WL2 = 1.54439
_WL3 = 1.39222
_WLRATIO = 0.5
_ANODE = Cu
_V4_INF_USER = Lab Manager
_V4_INF_CREATOR = V5Converter
_V4_INF_CREATOR_VERSION = 4.4.16.0

; Data for range 1
_DRIVE = COUPLED
_STEPTIME = 57.6
_STEPSIZE = 0.019721
_STEPMODE = C
_START = 20
_THETA = 10
_2THETA = 20
_KHI = 0
_PHI = 0
_DETECTORSLIT = out
_AUX1 = 0
_TIMESTARTED = 0
_KV = 40
_MA = 40
_RANGE_WL = 1.5406
_3DPLANE = 0
_V4_PSD2THETA = 9999
_V4_PSDCHANNEL1 = 0
_V4_PSDAPERTURE = 2.839876
_V4_PSDTYPE = 5
_V4_PSDFIXED = 0
_V4_COUNTERS_MASK = 1
_V4_DRIVES_MASK = 0
_V4_ENCODERS_MASK = 0
_2THETACOUNTS = 1
; 2THETA	Cnt2_D1
20	551
20.2367	551
20.4733	534
20.71	533
20.9466	541
21.1833	544
21.4199	511
21.6566	544
21.8933	517
22.1299	548
22.3666	570
22.6032	527
22.8399	553
23.0765	520
23.3132	531
23.5498	499
23.7865	519
24.0232	549
24.2598	639
24.4965	654
24.7331	583
24.9698	519
25.2064	563
25.4431	596
25.6798	542
25.9164	508
26.1531	545
26.3897	548
26.6264	581
26.863	585
27.0997	518
27.3363	497
27.573	477
27.8097	546
28.0463	574
28.283	601
28.5196	524
28.7563	546
28.9929	558
29.2296	583
29.4663	488
29.7029	557
29.9396	564
30.1762	556
30.4129	581
30.6495	557
30.8862	553
31.1228	557
31.3595	576
31.5962	552
31.8328	578
32.0695	541
32.3061	550
32.5428	572
32.7794	546
33.0161	572
33.2528	601
33.4894	789
33.7261	602
33.9627	588
34.1994	553
34.436	515
34.6727	572
34.9094	549
35.146	562
35.3827	574
35.6193	607
35.856	696
36.0926	584
36.3293	558
36.5659	552
36.8026	576
37.0393	619
37.2759	582
37.5126	572
37.7492	583
37.9859	514
38.2225	561
38.4592	517
38.6959	587
38.9325	552
39.1692	526
39.4058	541
39.6425	556
39.8791	536
40.1158	572
40.3524	520
40.5891	503
40.8258	532
41.0624	531
41.2991	569
41.5357	551
41.7724	553
42.009	586
42.2457	558
42.4824	506
42.719	592
42.9557	636
43.1923	674
43.429	655
43.6656	610
43.9023	880
44.1389	13580
44.3756	2214
44.6123	656
44.8489	612
45.0856	588
45.3222	609
45.5589	584
45.7955	573
46.0322	560
46.2689	545
46.5055	567
46.7422	540
46.9788	576
47.2155	535
47.4521	504
47.6888	567
47.9255	528
48.1621	561
48.3988	527
48.6354	534
48.8721	551
49.1087	525
49.3454	575
49.582	512
49.8187	559
50.0554	631
50.292	534
50.5287	588
50.7653	536
51.002	536
51.2386	855
51.4753	4423
51.712	986
51.9486	597
52.1853	564
52.4219	546
52.6586	546
52.8952	535
53.1319	539
53.3685	529
53.6052	537
53.8419	505
54.0785	530
54.3152	558
54.5518	564
54.7885	563
55.0251	532
55.2618	536
55.4985	476
55.7351	522
55.9718	550
56.2084	515
56.4451	525
56.6817	505
56.9184	512
57.155	510
57.3917	507
57.6284	497
57.865	509
58.1017	480
58.3383	460
58.575	513
58.8116	491
59.0483	471
59.285	473
59.5216	488
59.7583	485
59.9949	476
60.2316	500
60.4682	500
60.7049	495
60.9416	508
61.1782	484
61.4149	506
61.6515	476
61.8882	492
62.1248	491
62.3615	536
62.5981	481
62.8348	528
63.0715	553
63.3081	517
63.5448	516
63.7814	516
64.0181	468
64.2547	475
64.4914	490
64.7281	467
64.9647	489
65.2014	487
65.438	457
65.6747	479
65.9113	489
66.148	503
66.3846	459
66.6213	472
66.858	488
67.0946	475
67.3313	456
67.5679	455
67.8046	513
68.0412	471
68.2779	460
68.5146	489
68.7512	495
68.9879	459
69.2245	468
69.4612	440
69.6978	505
69.9345	443
70.1711	466
70.4078	462
70.6445	471
70.8811	412
71.1178	486
71.3544	462
71.5911	450
71.8277	410
72.0644	439
72.3011	454
72.5377	421
72.7744	450
73.011	472
73.2477	447
73.4843	483
73.721	418
73.9577	462
74.1943	463
74.431	438
74.6676	483
74.9043	470
75.1409	473
75.3776	489
75.6142	1800
75.8509	1356
76.0876	562
76.3242	464
76.5609	434
76.7975	430
77.0342	420
77.2708	451
77.5075	424
77.7442	421
77.9808	437
78.2175	448
78.4541	438
78.6908	416
78.9274	432
79.1641	449
79.4007	458
79.6374	412
79.8741	407
80.1107	394
80.3474	417
80.584	440
80.8207	382
81.0573	421
81.294	395
81.5307	430
81.7673	368
82.004	383
82.2406	385
82.4773	452
82.7139	395
82.9506	442
83.1873	414
83.4239	453
83.6606	393
83.8972	406
84.1339	392
84.3705	457
84.6072	395
84.8438	379
85.0805	442
85.3172	405
85.5538	426
85.7905	392
86.0271	419
86.2638	357
86.5004	397
86.7371	401
86.9738	411
87.2104	363
87.4471	400
87.6837	355
87.9204	363
88.157	377
88.3937	413
88.6303	391
88.867	415
89.1037	370
89.3403	397
89.577	365
89.8136	355
89.9911	394