File: XRD/600-07.uxd
;content of D:\data\result\mecham\???\20231225-89741\600-07.raw - (Diffrac Plus V4 file)
_FILEVERSION = 3
_SAMPLE
_+SAMPLE
_USER = Lab Manager
_GONIOMETER_CODE = 21
_STAGE_CODE = 7
; Goniometer : D8 theta/theta, stage : Chi drive
_SAMPLE_CHANGER_CODE = 0
_ATTACHMENTS_CODE = 0
_GONIOMETER_RADIUS = 280
_MONOCHROMATOR = 0
; Incident beam monochromator : None
_BETA_FILTER = N
_ANALYZER_CODE = 0
; Received beam analyzer : None
_DATEMEASURED = 25-Dec-2023 10:43:43
_RUNTIME = 11.19043
_WL_UNIT = A
_WL1 = 1.5406
_WL2 = 1.54439
_WL3 = 1.39222
_WLRATIO = 0.5
_ANODE = Cu
_V4_INF_USER = Lab Manager
_V4_INF_CREATOR = V5Converter
_V4_INF_CREATOR_VERSION = 4.4.16.0

; Data for range 1
_DRIVE = COUPLED
_STEPTIME = 57.6
_STEPSIZE = 0.019721
_STEPMODE = C
_START = 20
_THETA = 10
_2THETA = 20
_KHI = 0
_PHI = 0
_DETECTORSLIT = out
_AUX1 = 0
_TIMESTARTED = 0
_KV = 40
_MA = 40
_RANGE_WL = 1.5406
_3DPLANE = 0
_V4_PSD2THETA = 9999
_V4_PSDCHANNEL1 = 0
_V4_PSDAPERTURE = 2.839876
_V4_PSDTYPE = 5
_V4_PSDFIXED = 0
_V4_COUNTERS_MASK = 1
_V4_DRIVES_MASK = 0
_V4_ENCODERS_MASK = 0
_2THETACOUNTS = 1
; 2THETA	Cnt2_D1
20	293
20.2367	279
20.4733	288
20.71	307
20.9466	311
21.1833	305
21.4199	309
21.6566	277
21.8933	312
22.1299	284
22.3666	312
22.6032	305
22.8399	300
23.0765	293
23.3132	313
23.5498	275
23.7865	308
24.0232	290
24.2598	336
24.4965	396
24.7331	329
24.9698	279
25.2064	313
25.4431	305
25.6798	289
25.9164	321
26.1531	307
26.3897	287
26.6264	289
26.863	282
27.0997	327
27.3363	327
27.573	284
27.8097	312
28.0463	337
28.283	299
28.5196	312
28.7563	319
28.9929	292
29.2296	301
29.4663	320
29.7029	290
29.9396	308
30.1762	483
30.4129	444
30.6495	366
30.8862	282
31.1228	301
31.3595	326
31.5962	297
31.8328	308
32.0695	311
32.3061	317
32.5428	309
32.7794	305
33.0161	302
33.2528	322
33.4894	341
33.7261	399
33.9627	319
34.1994	327
34.436	317
34.6727	342
34.9094	338
35.146	355
35.3827	444
35.6193	1524
35.856	447
36.0926	370
36.3293	425
36.5659	318
36.8026	345
37.0393	517
37.2759	3265
37.5126	618
37.7492	375
37.9859	306
38.2225	338
38.4592	376
38.6959	306
38.9325	334
39.1692	333
39.4058	320
39.6425	332
39.8791	351
40.1158	354
40.3524	335
40.5891	339
40.8258	304
41.0624	266
41.2991	337
41.5357	369
41.7724	303
42.009	341
42.2457	325
42.4824	363
42.719	353
42.9557	378
43.1923	536
43.429	725
43.6656	377
43.9023	404
44.1389	3886
44.3756	1917
44.6123	770
44.8489	357
45.0856	359
45.3222	295
45.5589	339
45.7955	326
46.0322	317
46.2689	334
46.5055	301
46.7422	348
46.9788	327
47.2155	329
47.4521	336
47.6888	332
47.9255	319
48.1621	317
48.3988	338
48.6354	294
48.8721	316
49.1087	303
49.3454	296
49.582	328
49.8187	340
50.0554	328
50.292	340
50.5287	368
50.7653	336
51.002	323
51.2386	351
51.4753	1205
51.712	706
51.9486	573
52.1853	348
52.4219	323
52.6586	321
52.8952	304
53.1319	325
53.3685	362
53.6052	406
53.8419	391
54.0785	329
54.3152	318
54.5518	338
54.7885	345
55.0251	365
55.2618	348
55.4985	297
55.7351	283
55.9718	312
56.2084	346
56.4451	333
56.6817	336
56.9184	366
57.155	456
57.3917	483
57.6284	337
57.865	315
58.1017	319
58.3383	314
58.575	278
58.8116	315
59.0483	297
59.285	282
59.5216	286
59.7583	278
59.9949	297
60.2316	285
60.4682	281
60.7049	308
60.9416	289
61.1782	278
61.4149	311
61.6515	285
61.8882	302
62.1248	286
62.3615	302
62.5981	359
62.8348	730
63.0715	554
63.3081	352
63.5448	358
63.7814	266
64.0181	287
64.2547	313
64.4914	317
64.7281	311
64.9647	294
65.2014	324
65.438	317
65.6747	339
65.9113	294
66.148	267
66.3846	289
66.6213	283
66.858	279
67.0946	326
67.3313	288
67.5679	302
67.8046	253
68.0412	287
68.2779	285
68.5146	294
68.7512	266
68.9879	244
69.2245	282
69.4612	323
69.6978	285
69.9345	311
70.1711	290
70.4078	287
70.6445	306
70.8811	307
71.1178	299
71.3544	342
71.5911	328
71.8277	300
72.0644	265
72.3011	279
72.5377	273
72.7744	288
73.011	272
73.2477	265
73.4843	270
73.721	267
73.9577	268
74.1943	320
74.431	342
74.6676	320
74.9043	271
75.1409	305
75.3776	351
75.6142	587
75.8509	543
76.0876	410
76.3242	385
76.5609	337
76.7975	286
77.0342	271
77.2708	296
77.5075	279
77.7442	263
77.9808	288
78.2175	258
78.4541	296
78.6908	286
78.9274	278
79.1641	361
79.4007	455
79.6374	436
79.8741	315
80.1107	277
80.3474	264
80.584	267
80.8207	271
81.0573	258
81.294	244
81.5307	263
81.7673	265
82.004	251
82.2406	259
82.4773	255
82.7139	252
82.9506	263
83.1873	232
83.4239	234
83.6606	288
83.8972	250
84.1339	247
84.3705	258
84.6072	245
84.8438	249
85.0805	241
85.3172	238
85.5538	264
85.7905	227
86.0271	236
86.2638	256
86.5004	259
86.7371	239
86.9738	230
87.2104	285
87.4471	246
87.6837	240
87.9204	242
88.157	237
88.3937	232
88.6303	250
88.867	235
89.1037	212
89.3403	247
89.577	261
89.8136	244
89.9911	285