File: XRD/600-02.txt
?
20.0     5
20.23665 12
20.47331 22
20.70996 15
20.94662 19
21.18328 18
21.41993 16
21.65659 30
21.89325 35
22.12990 9
22.36656 38
22.60322 31
22.83987 17
23.07653 7
23.31318 50
23.54984 11
23.78650 19
24.02315 27
24.25981 76
24.49647 118
24.73312 19
24.96978 2
25.20644 35
25.44309 29
25.67975 10
25.91640 12
26.15306 12
26.38972 13
26.62637 41
26.86303 14
27.09969 0
27.33634 12
27.57300 18
27.80966 5
28.04631 19
28.28297 15
28.51963 3
28.75628 9
28.99294 22
29.22959 23
29.46625 4
29.70291 15
29.93956 19
30.17622 25
30.41288 10
30.64953 16
30.88619 19
31.12285 11
31.35950 16
31.59616 9
31.83281 27
32.06947 10
32.30613 50
32.54278 17
32.77944 23
33.01610 20
33.25275 60
33.48941 132
33.72607 63
33.96272 38
34.19938 23
34.43603 31
34.67269 43
34.90935 34
35.14600 27
35.38266 27
35.61932 67
35.85597 97
36.09263 61
36.32928 33
36.56594 34
36.80260 39
37.03926 45
37.27591 36
37.51257 25
37.74922 66
37.98588 47
38.22254 34
38.45919 20
38.69585 36
38.93251 25
39.16916 13
39.40582 31
39.64247 42
39.87913 18
40.11579 58
40.35244 38
40.58910 17
40.82576 34
41.06241 40
41.29907 30
41.53572 37
41.77238 33
42.00904 54
42.24570 47
42.48235 13
42.71901 27
42.95566 55
43.19232 96
43.42898 90
43.66563 86
43.90229 298
44.13895 11443
44.37560 335
44.61226 72
44.84891 81
45.08557 54
45.32223 50
45.55888 45
45.79554 29
46.0322  35
46.26885 23
46.50551 30
46.74217 29
46.97882 34
47.21548 27
47.45214 10
47.68879 33
47.92545 30
48.16210 40
48.39876 25
48.63542 33
48.87207 28
49.10873 29
49.34539 34
49.58204 46
49.81870 37
50.05535 47
50.29201 52
50.52867 33
50.76532 46
51.00198 53
51.23864 310
51.47529 3051
51.71195 139
51.94861 41
52.18526 42
52.42192 37
52.65858 39
52.89523 18
53.13189 39
53.36854 34
53.60520 23
53.84186 21
54.07851 29
54.31517 15
54.55183 59
54.78848 50
55.02514 33
55.26179 34
55.49845 21
55.73511 18
55.97176 35
56.20842 37
56.44508 22
56.68174 20
56.91839 18
57.15505 20
57.39170 27
57.62836 20
57.86502 24
58.10167 23
58.33833 17
58.57498 26
58.81164 3
59.04830 10
59.28495 18
59.52161 19
59.75827 0
59.99492 16
60.23158 19
60.46823 5
60.70489 19
60.94155 19
61.17820 9
61.41486 13
61.65152 15
61.88818 17
62.12483 24
62.36149 22
62.59814 23
62.83480 54
63.07146 44
63.30811 25
63.54477 18
63.78142 32
64.01808 19
64.25474 26
64.49140 19
64.72805 22
64.96471 11
65.20137 44
65.43802 11
65.67468 17
65.91133 21
66.14799 28
66.38465 27
66.62130 20
66.85796 29
67.09462 16
67.33127 35
67.56793 3
67.80458 48
68.04124 6
68.27790 30
68.51455 50
68.75121 20
68.98786 34
69.22452 29
69.46118 7
69.69783 27
69.93449 24
70.17115 20
70.40780 14
70.64446 17
70.88111 26
71.11777 24
71.35443 40
71.59108 15
71.82774 19
72.0644  25
72.30105 33
72.53771 20
72.77436 18
73.01102 40
73.24768 6
73.48434 28
73.72100 14
73.95765 10
74.19431 33
74.43096 6
74.66762 41
74.90428 35
75.14093 36
75.37759 41
75.61425 1181
75.85090 353
76.08756 65
76.32421 25
76.56087 12
76.79753 34
77.03418 26
77.27084 15
77.5075  11
77.74415 35
77.98081 21
78.21746 24
78.45412 35
78.69078 7
78.92743 35
79.16409 24
79.40074 35
79.63740 15
79.87406 26
80.11071 24
80.34737 27
80.58403 35
80.82068 12
81.05734 33
81.29399 17
81.53065 44
81.76731 14
82.00396 33
82.24062 36
82.47728 28
82.71393 29
82.95059 37
83.18725 34
83.42391 29
83.66056 9
83.89722 40
84.13388 23
84.37053 39
84.60719 26
84.84384 11
85.08050 41
85.31716 25
85.55381 24
85.79047 26
86.02713 16
86.26378 16
86.50044 21
86.73709 13
86.97375 21
87.21041 15
87.44706 19
87.68372 13
87.92038 14
88.15703 10
88.39369 33
88.63034 16
88.86700 14
89.10366 13
89.34031 9
89.57697 11
89.81362 8
89.99111 30