File: XRD/600-07.txt
?
20.0     6
20.23665 7
20.47331 18
20.70996 11
20.94662 17
21.18328 15
21.41993 19
21.65659 1
21.89325 20
22.12990 11
22.36656 21
22.60322 30
22.83987 10
23.07653 16
23.31318 15
23.54984 20
23.78650 23
24.02315 15
24.25981 27
24.49647 57
24.73312 26
24.96978 25
25.20644 20
25.44309 22
25.67975 12
25.91640 18
26.15306 19
26.38972 22
26.62637 7
26.86303 15
27.09969 19
27.33634 18
27.57300 28
27.80966 11
28.04631 43
28.28297 2
28.51963 30
28.75628 7
28.99294 11
29.22959 19
29.46625 11
29.70291 26
29.93956 22
30.17622 191
30.41288 69
30.64953 21
30.88619 16
31.12285 15
31.35950 18
31.59616 8
31.83281 34
32.06947 11
32.30613 23
32.54278 17
32.77944 16
33.01610 17
33.25275 11
33.48941 58
33.72607 76
33.96272 33
34.19938 39
34.43603 26
34.67269 35
34.90935 28
35.14600 26
35.38266 105
35.61932 973
35.85597 68
36.09263 67
36.32928 87
36.56594 26
36.80260 32
37.03926 136
37.27591 2450
37.51257 121
37.74922 24
37.98588 24
38.22254 20
38.45919 37
38.69585 10
38.93251 12
39.16916 10
39.40582 0
39.64247 19
39.87913 18
40.11579 17
40.35244 16
40.58910 28
40.82576 0
41.06241 0
41.29907 8
41.53572 29
41.77238 8
42.00904 10
42.24570 6
42.48235 9
42.71901 16
42.95566 22
43.19232 176
43.42898 138
43.66563 28
43.90229 56
44.13895 3479
44.37560 679
44.61226 216
44.84891 0
45.08557 30
45.32223 12
45.55888 33
45.79554 9
46.0322  27
46.26885 26
46.50551 7
46.74217 3
46.97882 9
47.21548 25
47.45214 30
47.68879 25
47.92545 20
48.16210 30
48.39876 27
48.63542 20
48.87207 22
49.10873 35
49.34539 23
49.58204 15
49.81870 34
50.05535 21
50.29201 14
50.52867 29
50.76532 20
51.00198 34
51.23864 62
51.47529 799
51.71195 242
51.94861 148
52.18526 30
52.42192 9
52.65858 6
52.89523 13
53.13189 25
53.36854 37
53.60520 63
53.84186 32
54.07851 31
54.31517 19
54.55183 20
54.78848 50
55.02514 49
55.26179 28
55.49845 20
55.73511 10
55.97176 13
56.20842 26
56.44508 31
56.68174 39
56.91839 52
57.15505 174
57.39170 70
57.62836 50
57.86502 26
58.10167 14
58.33833 24
58.57498 19
58.81164 12
59.04830 17
59.28495 18
59.52161 0
59.75827 25
59.99492 11
60.23158 10
60.46823 11
60.70489 31
60.94155 0
61.17820 22
61.41486 13
61.65152 31
61.88818 16
62.12483 2
62.36149 31
62.59814 62
62.83480 417
63.07146 88
63.30811 42
63.54477 42
63.78142 0
64.01808 24
64.25474 26
64.49140 10
64.72805 28
64.96471 21
65.20137 50
65.43802 39
65.67468 26
65.91133 19
66.14799 11
66.38465 18
66.62130 5
66.85796 8
67.09462 31
67.33127 0
67.56793 24
67.80458 5
68.04124 29
68.27790 21
68.51455 11
68.75121 23
68.98786 4
69.22452 15
69.46118 29
69.69783 19
69.93449 10
70.17115 14
70.40780 20
70.64446 24
70.88111 33
71.11777 24
71.35443 28
71.59108 18
71.82774 12
72.0644  18
72.30105 15
72.53771 33
72.77436 16
73.01102 28
73.24768 2
73.48434 20
73.72100 9
73.95765 17
74.19431 78
74.43096 56
74.66762 35
74.90428 16
75.14093 39
75.37759 72
75.61425 283
75.85090 121
76.08756 69
76.32421 94
76.56087 35
76.79753 14
77.03418 11
77.27084 17
77.5075  21
77.74415 7
77.98081 20
78.21746 11
78.45412 25
78.69078 9
78.92743 19
79.16409 76
79.40074 185
79.63740 57
79.87406 9
80.11071 25
80.34737 4
80.58403 30
80.82068 6
81.05734 17
81.29399 15
81.53065 11
81.76731 39
82.00396 8
82.24062 19
82.47728 27
82.71393 16
82.95059 21
83.18725 7
83.42391 22
83.66056 26
83.89722 22
84.13388 14
84.37053 25
84.60719 26
84.84384 9
85.08050 34
85.31716 18
85.55381 20
85.79047 24
86.02713 26
86.26378 17
86.50044 41
86.73709 24
86.97375 35
87.21041 45
87.44706 14
87.68372 13
87.92038 19
88.15703 20
88.39369 20
88.63034 16
88.86700 3
89.10366 12
89.34031 25
89.57697 32
89.81362 31
89.99111 45