File: XRD/690-07.uxd
;content of D:\data\result\mecham\???\20231225-89741\690-07.raw - (Diffrac Plus V4 file)
_FILEVERSION = 3
_SAMPLE
_+SAMPLE
_USER = Lab Manager
_GONIOMETER_CODE = 21
_STAGE_CODE = 7
; Goniometer : D8 theta/theta, stage : Chi drive
_SAMPLE_CHANGER_CODE = 0
_ATTACHMENTS_CODE = 0
_GONIOMETER_RADIUS = 280
_MONOCHROMATOR = 0
; Incident beam monochromator : None
_BETA_FILTER = N
_ANALYZER_CODE = 0
; Received beam analyzer : None
_DATEMEASURED = 25-Dec-2023 11:22:40
_RUNTIME = 11.18933
_WL_UNIT = A
_WL1 = 1.5406
_WL2 = 1.54439
_WL3 = 1.39222
_WLRATIO = 0.5
_ANODE = Cu
_V4_INF_USER = Lab Manager
_V4_INF_CREATOR = V5Converter
_V4_INF_CREATOR_VERSION = 4.4.16.0

; Data for range 1
_DRIVE = COUPLED
_STEPTIME = 57.6
_STEPSIZE = 0.019721
_STEPMODE = C
_START = 20
_THETA = 10
_2THETA = 20
_KHI = 0
_PHI = 0
_DETECTORSLIT = out
_AUX1 = 0
_TIMESTARTED = 0
_KV = 40
_MA = 40
_RANGE_WL = 1.5406
_3DPLANE = 0
_V4_PSD2THETA = 9999
_V4_PSDCHANNEL1 = 0
_V4_PSDAPERTURE = 2.839876
_V4_PSDTYPE = 5
_V4_PSDFIXED = 0
_V4_COUNTERS_MASK = 1
_V4_DRIVES_MASK = 0
_V4_ENCODERS_MASK = 0
_2THETACOUNTS = 1
; 2THETA	Cnt2_D1
20	509
20.2367	541
20.4733	512
20.71	501
20.9466	464
21.1833	467
21.4199	440
21.6566	492
21.8933	496
22.1299	494
22.3666	505
22.6032	499
22.8399	461
23.0765	480
23.3132	461
23.5498	456
23.7865	480
24.0232	484
24.2598	594
24.4965	771
24.7331	513
24.9698	502
25.2064	552
25.4431	534
25.6798	519
25.9164	493
26.1531	473
26.3897	465
26.6264	510
26.863	492
27.0997	457
27.3363	467
27.573	483
27.8097	519
28.0463	493
28.283	490
28.5196	517
28.7563	492
28.9929	494
29.2296	466
29.4663	467
29.7029	456
29.9396	542
30.1762	531
30.4129	510
30.6495	465
30.8862	505
31.1228	480
31.3595	474
31.5962	432
31.8328	488
32.0695	458
32.3061	477
32.5428	531
32.7794	479
33.0161	457
33.2528	538
33.4894	684
33.7261	588
33.9627	484
34.1994	447
34.436	429
34.6727	424
34.9094	479
35.146	486
35.3827	514
35.6193	566
35.856	522
36.0926	618
36.3293	531
36.5659	469
36.8026	513
37.0393	575
37.2759	1062
37.5126	460
37.7492	431
37.9859	448
38.2225	445
38.4592	468
38.6959	472
38.9325	452
39.1692	473
39.4058	490
39.6425	509
39.8791	470
40.1158	461
40.3524	477
40.5891	443
40.8258	451
41.0624	462
41.2991	453
41.5357	506
41.7724	444
42.009	448
42.2457	486
42.4824	524
42.719	455
42.9557	502
43.1923	599
43.429	697
43.6656	855
43.9023	25225
44.1389	2168
44.3756	584
44.6123	543
44.8489	529
45.0856	507
45.3222	459
45.5589	459
45.7955	465
46.0322	468
46.2689	458
46.5055	437
46.7422	452
46.9788	475
47.2155	478
47.4521	461
47.6888	471
47.9255	466
48.1621	445
48.3988	473
48.6354	419
48.8721	454
49.1087	458
49.3454	459
49.582	494
49.8187	434
50.0554	513
50.292	521
50.5287	475
50.7653	524
51.002	1400
51.2386	9084
51.4753	914
51.712	502
51.9486	453
52.1853	460
52.4219	418
52.6586	462
52.8952	490
53.1319	451
53.3685	437
53.6052	453
53.8419	452
54.0785	407
54.3152	438
54.5518	427
54.7885	519
55.0251	453
55.2618	452
55.4985	459
55.7351	451
55.9718	442
56.2084	412
56.4451	411
56.6817	454
56.9184	460
57.155	447
57.3917	427
57.6284	404
57.865	422
58.1017	432
58.3383	406
58.575	374
58.8116	411
59.0483	417
59.285	369
59.5216	434
59.7583	383
59.9949	431
60.2316	361
60.4682	371
60.7049	387
60.9416	384
61.1782	380
61.4149	398
61.6515	367
61.8882	387
62.1248	384
62.3615	398
62.5981	388
62.8348	557
63.0715	465
63.3081	375
63.5448	373
63.7814	365
64.0181	393
64.2547	364
64.4914	387
64.7281	370
64.9647	409
65.2014	386
65.438	380
65.6747	355
65.9113	382
66.148	402
66.3846	378
66.6213	357
66.858	360
67.0946	378
67.3313	379
67.5679	367
67.8046	392
68.0412	365
68.2779	373
68.5146	379
68.7512	397
68.9879	356
69.2245	392
69.4612	351
69.6978	342
69.9345	345
70.1711	358
70.4078	378
70.6445	351
70.8811	337
71.1178	369
71.3544	343
71.5911	344
71.8277	388
72.0644	347
72.3011	375
72.5377	361
72.7744	386
73.011	346
73.2477	349
73.4843	396
73.721	356
73.9577	404
74.1943	356
74.431	403
74.6676	339
74.9043	364
75.1409	580
75.3776	587
75.6142	432
75.8509	333
76.0876	311
76.3242	336
76.5609	346
76.7975	362
77.0342	355
77.2708	354
77.5075	382
77.7442	365
77.9808	329
78.2175	351
78.4541	357
78.6908	365
78.9274	345
79.1641	353
79.4007	317
79.6374	341
79.8741	359
80.1107	305
80.3474	341
80.584	348
80.8207	342
81.0573	330
81.294	324
81.5307	323
81.7673	335
82.004	321
82.2406	336
82.4773	304
82.7139	296
82.9506	325
83.1873	352
83.4239	285
83.6606	319
83.8972	297
84.1339	338
84.3705	345
84.6072	354
84.8438	342
85.0805	322
85.3172	288
85.5538	338
85.7905	327
86.0271	311
86.2638	278
86.5004	305
86.7371	293
86.9738	326
87.2104	300
87.4471	311
87.6837	329
87.9204	311
88.157	284
88.3937	309
88.6303	308
88.867	300
89.1037	312
89.3403	331
89.577	328
89.8136	311
89.9911	292