File: XRD/690-02.uxd
;content of D:\data\result\mecham\???\20231225-89741\690-02.raw - (Diffrac Plus V4 file)
_FILEVERSION = 3
_SAMPLE
_+SAMPLE
_USER = Lab Manager
_GONIOMETER_CODE = 21
_STAGE_CODE = 7
; Goniometer : D8 theta/theta, stage : Chi drive
_SAMPLE_CHANGER_CODE = 0
_ATTACHMENTS_CODE = 0
_GONIOMETER_RADIUS = 280
_MONOCHROMATOR = 0
; Incident beam monochromator : None
_BETA_FILTER = N
_ANALYZER_CODE = 0
; Received beam analyzer : None
_DATEMEASURED = 25-Dec-2023 11:03:11
_RUNTIME = 11.18979
_WL_UNIT = A
_WL1 = 1.5406
_WL2 = 1.54439
_WL3 = 1.39222
_WLRATIO = 0.5
_ANODE = Cu
_V4_INF_USER = Lab Manager
_V4_INF_CREATOR = V5Converter
_V4_INF_CREATOR_VERSION = 4.4.16.0

; Data for range 1
_DRIVE = COUPLED
_STEPTIME = 57.6
_STEPSIZE = 0.019721
_STEPMODE = C
_START = 20
_THETA = 10
_2THETA = 20
_KHI = 0
_PHI = 0
_DETECTORSLIT = out
_AUX1 = 0
_TIMESTARTED = 0
_KV = 40
_MA = 40
_RANGE_WL = 1.5406
_3DPLANE = 0
_V4_PSD2THETA = 9999
_V4_PSDCHANNEL1 = 0
_V4_PSDAPERTURE = 2.839876
_V4_PSDTYPE = 5
_V4_PSDFIXED = 0
_V4_COUNTERS_MASK = 1
_V4_DRIVES_MASK = 0
_V4_ENCODERS_MASK = 0
_2THETACOUNTS = 1
; 2THETA	Cnt2_D1
20	396
20.2367	379
20.4733	379
20.71	404
20.9466	366
21.1833	378
21.4199	399
21.6566	389
21.8933	398
22.1299	410
22.3666	387
22.6032	432
22.8399	385
23.0765	353
23.3132	395
23.5498	379
23.7865	392
24.0232	421
24.2598	470
24.4965	648
24.7331	460
24.9698	404
25.2064	403
25.4431	392
25.6798	359
25.9164	414
26.1531	372
26.3897	381
26.6264	390
26.863	380
27.0997	373
27.3363	394
27.573	405
27.8097	396
28.0463	396
28.283	387
28.5196	395
28.7563	393
28.9929	402
29.2296	338
29.4663	431
29.7029	394
29.9396	426
30.1762	410
30.4129	384
30.6495	394
30.8862	415
31.1228	409
31.3595	395
31.5962	408
31.8328	412
32.0695	411
32.3061	404
32.5428	380
32.7794	429
33.0161	425
33.2528	565
33.4894	1075
33.7261	500
33.9627	401
34.1994	412
34.436	419
34.6727	370
34.9094	391
35.146	494
35.3827	444
35.6193	422
35.856	420
36.0926	455
36.3293	467
36.5659	419
36.8026	412
37.0393	393
37.2759	426
37.5126	375
37.7492	398
37.9859	439
38.2225	394
38.4592	411
38.6959	369
38.9325	371
39.1692	379
39.4058	430
39.6425	400
39.8791	390
40.1158	407
40.3524	376
40.5891	395
40.8258	381
41.0624	381
41.2991	504
41.5357	426
41.7724	398
42.009	394
42.2457	404
42.4824	447
42.719	437
42.9557	440
43.1923	436
43.429	483
43.6656	753
43.9023	14961
44.1389	3507
44.3756	569
44.6123	472
44.8489	429
45.0856	450
45.3222	415
45.5589	437
45.7955	398
46.0322	409
46.2689	401
46.5055	365
46.7422	407
46.9788	398
47.2155	416
47.4521	416
47.6888	391
47.9255	438
48.1621	402
48.3988	412
48.6354	377
48.8721	400
49.1087	390
49.3454	411
49.582	429
49.8187	397
50.0554	491
50.292	403
50.5287	420
50.7653	473
51.002	894
51.2386	3866
51.4753	698
51.712	393
51.9486	390
52.1853	400
52.4219	399
52.6586	394
52.8952	412
53.1319	395
53.3685	394
53.6052	378
53.8419	415
54.0785	421
54.3152	419
54.5518	529
54.7885	532
55.0251	397
55.2618	361
55.4985	331
55.7351	367
55.9718	381
56.2084	397
56.4451	381
56.6817	377
56.9184	371
57.155	372
57.3917	378
57.6284	364
57.865	360
58.1017	376
58.3383	433
58.575	339
58.8116	383
59.0483	379
59.285	374
59.5216	406
59.7583	339
59.9949	382
60.2316	369
60.4682	348
60.7049	329
60.9416	358
61.1782	386
61.4149	361
61.6515	351
61.8882	409
62.1248	361
62.3615	379
62.5981	385
62.8348	391
63.0715	403
63.3081	395
63.5448	341
63.7814	331
64.0181	374
64.2547	382
64.4914	372
64.7281	367
64.9647	369
65.2014	352
65.438	347
65.6747	366
65.9113	379
66.148	354
66.3846	365
66.6213	333
66.858	340
67.0946	341
67.3313	375
67.5679	361
67.8046	352
68.0412	338
68.2779	318
68.5146	355
68.7512	357
68.9879	340
69.2245	323
69.4612	348
69.6978	334
69.9345	310
70.1711	319
70.4078	363
70.6445	372
70.8811	311
71.1178	352
71.3544	343
71.5911	359
71.8277	341
72.0644	333
72.3011	340
72.5377	351
72.7744	343
73.011	328
73.2477	326
73.4843	345
73.721	371
73.9577	329
74.1943	322
74.431	307
74.6676	328
74.9043	347
75.1409	627
75.3776	868
75.6142	505
75.8509	301
76.0876	350
76.3242	330
76.5609	336
76.7975	326
77.0342	343
77.2708	300
77.5075	303
77.7442	306
77.9808	355
78.2175	330
78.4541	319
78.6908	294
78.9274	299
79.1641	326
79.4007	328
79.6374	278
79.8741	341
80.1107	316
80.3474	348
80.584	336
80.8207	293
81.0573	297
81.294	328
81.5307	325
81.7673	315
82.004	295
82.2406	308
82.4773	293
82.7139	288
82.9506	295
83.1873	350
83.4239	306
83.6606	354
83.8972	295
84.1339	313
84.3705	307
84.6072	304
84.8438	284
85.0805	271
85.3172	325
85.5538	309
85.7905	293
86.0271	301
86.2638	276
86.5004	297
86.7371	294
86.9738	286
87.2104	303
87.4471	282
87.6837	339
87.9204	293
88.157	287
88.3937	269
88.6303	292
88.867	251
89.1037	274
89.3403	324
89.577	264
89.8136	284
89.9911	297