File: XRD/690-02.txt
?
20.0     0
20.23665 18
20.47331 23
20.70996 16
20.94662 30
21.18328 21
21.41993 33
21.65659 38
21.89325 35
22.12990 26
22.36656 31
22.60322 42
22.83987 22
23.07653 31
23.31318 39
23.54984 36
23.78650 25
24.02315 26
24.25981 93
24.49647 176
24.73312 41
24.96978 37
25.20644 21
25.44309 28
25.67975 19
25.91640 33
26.15306 11
26.38972 8
26.62637 28
26.86303 26
27.09969 23
27.33634 31
27.57300 41
27.80966 34
28.04631 54
28.28297 44
28.51963 30
28.75628 46
28.99294 41
29.22959 3
29.46625 50
29.70291 51
29.93956 71
30.17622 33
30.41288 32
30.64953 29
30.88619 34
31.12285 47
31.35950 39
31.59616 39
31.83281 30
32.06947 22
32.30613 25
32.54278 33
32.77944 27
33.01610 17
33.25275 144
33.48941 432
33.72607 77
33.96272 20
34.19938 31
34.43603 22
34.67269 21
34.90935 26
35.14600 68
35.38266 46
35.61932 30
35.85597 62
36.09263 55
36.32928 35
36.56594 20
36.80260 27
37.03926 28
37.27591 31
37.51257 31
37.74922 25
37.98588 29
38.22254 23
38.45919 29
38.69585 23
38.93251 30
39.16916 21
39.40582 54
39.64247 55
39.87913 41
40.11579 40
40.35244 14
40.58910 19
40.82576 5
41.06241 11
41.29907 85
41.53572 42
41.77238 7
42.00904 11
42.24570 17
42.48235 32
42.71901 10
42.95566 23
43.19232 27
43.42898 48
43.66563 253
43.90229 11999
44.13895 466
44.37560 93
44.61226 32
44.84891 27
45.08557 19
45.32223 13
45.55888 18
45.79554 0
46.0322  20
46.26885 13
46.50551 7
46.74217 9
46.97882 10
47.21548 23
47.45214 27
47.68879 8
47.92545 41
48.16210 41
48.39876 28
48.63542 17
48.87207 25
49.10873 25
49.34539 47
49.58204 45
49.81870 36
50.05535 81
50.29201 48
50.52867 36
50.76532 70
51.00198 475
51.23864 2408
51.47529 74
51.71195 28
51.94861 38
52.18526 31
52.42192 31
52.65858 14
52.89523 41
53.13189 28
53.36854 25
53.60520 21
53.84186 16
54.07851 21
54.31517 58
54.55183 134
54.78848 90
55.02514 29
55.26179 21
55.49845 11
55.73511 26
55.97176 18
56.20842 24
56.44508 26
56.68174 19
56.91839 24
57.15505 8
57.39170 11
57.62836 26
57.86502 24
58.10167 21
58.33833 60
58.57498 32
58.81164 26
59.04830 17
59.28495 32
59.52161 43
59.75827 15
59.99492 37
60.23158 27
60.46823 44
60.70489 45
60.94155 30
61.17820 43
61.41486 23
61.65152 29
61.88818 57
62.12483 34
62.36149 25
62.59814 46
62.83480 65
63.07146 66
63.30811 43
63.54477 10
63.78142 30
64.01808 19
64.25474 31
64.49140 22
64.72805 38
64.96471 26
65.20137 36
65.43802 11
65.67468 16
65.91133 23
66.14799 38
66.38465 24
66.62130 29
66.85796 21
67.09462 23
67.33127 41
67.56793 40
67.80458 25
68.04124 25
68.27790 26
68.51455 38
68.75121 31
68.98786 30
69.22452 25
69.46118 40
69.69783 21
69.93449 31
70.17115 37
70.40780 24
70.64446 34
70.88111 25
71.11777 31
71.35443 36
71.59108 28
71.82774 29
72.0644  19
72.30105 29
72.53771 44
72.77436 40
73.01102 23
73.24768 27
73.48434 32
73.72100 32
73.95765 20
74.19431 15
74.43096 33
74.66762 14
74.90428 42
75.14093 275
75.37759 421
75.61425 29
75.85090 30
76.08756 30
76.32421 13
76.56087 39
76.79753 18
77.03418 25
77.27084 16
77.5075  21
77.74415 17
77.98081 40
78.21746 38
78.45412 20
78.69078 23
78.92743 31
79.16409 19
79.40074 27
79.63740 13
79.87406 51
80.11071 6
80.34737 34
80.58403 18
80.82068 31
81.05734 6
81.29399 45
81.53065 24
81.76731 24
82.00396 15
82.24062 20
82.47728 15
82.71393 27
82.95059 21
83.18725 31
83.42391 29
83.66056 42
83.89722 23
84.13388 34
84.37053 21
84.60719 39
84.84384 21
85.08050 31
85.31716 45
85.55381 29
85.79047 25
86.02713 28
86.26378 27
86.50044 30
86.73709 20
86.97375 18
87.21041 49
87.44706 17
87.68372 37
87.92038 24
88.15703 34
88.39369 16
88.63034 22
88.86700 28
89.10366 27
89.34031 47
89.57697 43
89.81362 23
89.99111 42