File: XRD/690-07.txt
?
20.0     9
20.23665 48
20.47331 25
20.70996 18
20.94662 26
21.18328 31
21.41993 38
21.65659 29
21.89325 18
22.12990 28
22.36656 27
22.60322 33
22.83987 22
23.07653 31
23.31318 29
23.54984 22
23.78650 35
24.02315 35
24.25981 89
24.49647 230
24.73312 46
24.96978 17
25.20644 47
25.44309 56
25.67975 31
25.91640 45
26.15306 21
26.38972 21
26.62637 45
26.86303 37
27.09969 19
27.33634 27
27.57300 36
27.80966 24
28.04631 27
28.28297 34
28.51963 33
28.75628 23
28.99294 30
29.22959 20
29.46625 16
29.70291 6
29.93956 56
30.17622 63
30.41288 52
30.64953 47
30.88619 32
31.12285 26
31.35950 21
31.59616 11
31.83281 17
32.06947 25
32.30613 23
32.54278 63
32.77944 34
33.01610 30
33.25275 65
33.48941 187
33.72607 89
33.96272 19
34.19938 26
34.43603 28
34.67269 42
34.90935 37
35.14600 60
35.38266 68
35.61932 130
35.85597 105
36.09263 182
36.32928 58
36.56594 47
36.80260 46
37.03926 104
37.27591 441
37.51257 27
37.74922 31
37.98588 26
38.22254 30
38.45919 31
38.69585 38
38.93251 27
39.16916 36
39.40582 42
39.64247 50
39.87913 14
40.11579 21
40.35244 14
40.58910 4
40.82576 1
41.06241 6
41.29907 15
41.53572 22
41.77238 4
42.00904 1
42.24570 7
42.48235 33
42.71901 31
42.95566 20
43.19232 99
43.42898 93
43.66563 299
43.90229 19246
44.13895 245
44.37560 49
44.61226 76
44.84891 30
45.08557 32
45.32223 24
45.55888 32
45.79554 33
46.0322  19
46.26885 12
46.50551 12
46.74217 30
46.97882 33
47.21548 41
47.45214 43
47.68879 34
47.92545 51
48.16210 34
48.39876 56
48.63542 23
48.87207 40
49.10873 34
49.34539 28
49.58204 52
49.81870 40
50.05535 74
50.29201 93
50.52867 59
50.76532 106
51.00198 685
51.23864 3393
51.47529 140
51.71195 53
51.94861 44
52.18526 44
52.42192 30
52.65858 27
52.89523 46
53.13189 17
53.36854 11
53.60520 42
53.84186 46
54.07851 10
54.31517 21
54.55183 44
54.78848 62
55.02514 31
55.26179 25
55.49845 36
55.73511 28
55.97176 24
56.20842 36
56.44508 24
56.68174 20
56.91839 47
57.15505 39
57.39170 32
57.62836 31
57.86502 30
58.10167 24
58.33833 42
58.57498 22
58.81164 31
59.04830 28
59.28495 16
59.52161 34
59.75827 25
59.99492 33
60.23158 24
60.46823 19
60.70489 28
60.94155 20
61.17820 21
61.41486 27
61.65152 31
61.88818 13
62.12483 25
62.36149 25
62.59814 41
62.83480 152
63.07146 43
63.30811 34
63.54477 41
63.78142 20
64.01808 24
64.25474 29
64.49140 29
64.72805 16
64.96471 36
65.20137 38
65.43802 15
65.67468 19
65.91133 23
66.14799 30
66.38465 31
66.62130 7
66.85796 18
67.09462 32
67.33127 17
67.56793 29
67.80458 29
68.04124 40
68.27790 30
68.51455 33
68.75121 47
68.98786 6
69.22452 48
69.46118 21
69.69783 46
69.93449 32
70.17115 13
70.40780 60
70.64446 24
70.88111 25
71.11777 39
71.35443 15
71.59108 24
71.82774 46
72.0644  3
72.30105 54
72.53771 8
72.77436 50
73.01102 20
73.24768 18
73.48434 44
73.72100 24
73.95765 36
74.19431 26
74.43096 47
74.66762 19
74.90428 38
75.14093 251
75.37759 95
75.61425 43
75.85090 20
76.08756 28
76.32421 8
76.56087 22
76.79753 14
77.03418 12
77.27084 27
77.5075  26
77.74415 8
77.98081 26
78.21746 18
78.45412 22
78.69078 23
78.92743 22
79.16409 24
79.40074 53
79.63740 18
79.87406 36
80.11071 29
80.34737 36
80.58403 32
80.82068 40
81.05734 25
81.29399 27
81.53065 49
81.76731 32
82.00396 33
82.24062 49
82.47728 27
82.71393 42
82.95059 24
83.18725 53
83.42391 44
83.66056 41
83.89722 41
84.13388 43
84.37053 41
84.60719 46
84.84384 34
85.08050 19
85.31716 32
85.55381 44
85.79047 22
86.02713 43
86.26378 34
86.50044 31
86.73709 20
86.97375 53
87.21041 29
87.44706 27
87.68372 32
87.92038 34
88.15703 53
88.39369 7
88.63034 36
88.86700 29
89.10366 37
89.34031 37
89.57697 34
89.81362 14
89.99111 35