File: XRD/800-X.uxd
;content of D:\data\result\mecham\???\20231225-89741\800-X.raw - (Diffrac Plus V4 file)
_FILEVERSION = 3
_SAMPLE
_+SAMPLE
_USER = Lab Manager
_GONIOMETER_CODE = 21
_STAGE_CODE = 7
; Goniometer : D8 theta/theta, stage : Chi drive
_SAMPLE_CHANGER_CODE = 0
_ATTACHMENTS_CODE = 0
_GONIOMETER_RADIUS = 280
_MONOCHROMATOR = 0
; Incident beam monochromator : None
_BETA_FILTER = N
_ANALYZER_CODE = 0
; Received beam analyzer : None
_DATEMEASURED = 25-Dec-2023 12:01:33
_RUNTIME = 11.18897
_WL_UNIT = A
_WL1 = 1.5406
_WL2 = 1.54439
_WL3 = 1.39222
_WLRATIO = 0.5
_ANODE = Cu
_V4_INF_USER = Lab Manager
_V4_INF_CREATOR = V5Converter
_V4_INF_CREATOR_VERSION = 4.4.16.0

; Data for range 1
_DRIVE = COUPLED
_STEPTIME = 57.6
_STEPSIZE = 0.019721
_STEPMODE = C
_START = 20
_THETA = 10
_2THETA = 20
_KHI = 0
_PHI = 0
_DETECTORSLIT = out
_AUX1 = 0
_TIMESTARTED = 0
_KV = 40
_MA = 40
_RANGE_WL = 1.5406
_3DPLANE = 0
_V4_PSD2THETA = 9999
_V4_PSDCHANNEL1 = 0
_V4_PSDAPERTURE = 2.839876
_V4_PSDTYPE = 5
_V4_PSDFIXED = 0
_V4_COUNTERS_MASK = 1
_V4_DRIVES_MASK = 0
_V4_ENCODERS_MASK = 0
_2THETACOUNTS = 1
; 2THETA	Cnt2_D1
20	85
20.2367	76
20.4733	94
20.71	96
20.9466	76
21.1833	86
21.4199	80
21.6566	73
21.8933	71
22.1299	61
22.3666	75
22.6032	77
22.8399	81
23.0765	73
23.3132	66
23.5498	70
23.7865	85
24.0232	96
24.2598	481
24.4965	77
24.7331	84
24.9698	68
25.2064	77
25.4431	67
25.6798	91
25.9164	74
26.1531	68
26.3897	65
26.6264	58
26.863	76
27.0997	58
27.3363	64
27.573	56
27.8097	54
28.0463	47
28.283	60
28.5196	54
28.7563	56
28.9929	62
29.2296	51
29.4663	74
29.7029	42
29.9396	62
30.1762	70
30.4129	56
30.6495	39
30.8862	69
31.1228	64
31.3595	53
31.5962	63
31.8328	58
32.0695	51
32.3061	62
32.5428	55
32.7794	77
33.0161	135
33.2528	2784
33.4894	108
33.7261	57
33.9627	64
34.1994	63
34.436	47
34.6727	58
34.9094	68
35.146	56
35.3827	109
35.6193	264
35.856	61
36.0926	49
36.3293	53
36.5659	45
36.8026	47
37.0393	50
37.2759	45
37.5126	40
37.7492	40
37.9859	43
38.2225	54
38.4592	40
38.6959	39
38.9325	40
39.1692	47
39.4058	62
39.6425	44
39.8791	36
40.1158	43
40.3524	30
40.5891	37
40.8258	122
41.0624	66
41.2991	36
41.5357	51
41.7724	45
42.009	42
42.2457	36
42.4824	47
42.719	35
42.9557	33
43.1923	68
43.429	39
43.6656	41
43.9023	41
44.1389	44
44.3756	42
44.6123	27
44.8489	29
45.0856	29
45.3222	35
45.5589	33
45.7955	36
46.0322	28
46.2689	33
46.5055	38
46.7422	34
46.9788	33
47.2155	32
47.4521	33
47.6888	49
47.9255	38
48.1621	50
48.3988	36
48.6354	25
48.8721	36
49.1087	42
49.3454	162
49.582	254
49.8187	35
50.0554	42
50.292	32
50.5287	35
50.7653	39
51.002	25
51.2386	29
51.4753	30
51.712	44
51.9486	29
52.1853	27
52.4219	44
52.6586	29
52.8952	32
53.1319	21
53.3685	40
53.6052	69
53.8419	49
54.0785	455
54.3152	112
54.5518	42
54.7885	39
55.0251	35
55.2618	36
55.4985	43
55.7351	47
55.9718	47
56.2084	35
56.4451	37
56.6817	44
56.9184	112
57.155	76
57.3917	45
57.6284	149
57.865	55
58.1017	40
58.3383	40
58.575	42
58.8116	40
59.0483	54
59.285	34
59.5216	54
59.7583	45
59.9949	42
60.2316	58
60.4682	60
60.7049	51
60.9416	51
61.1782	55
61.4149	62
61.6515	50
61.8882	61
62.1248	60
62.3615	167
62.5981	196
62.8348	85
63.0715	72
63.3081	55
63.5448	78
63.7814	73
64.0181	101
64.2547	69
64.4914	71
64.7281	83
64.9647	73
65.2014	92
65.438	90
65.6747	85
65.9113	85
66.148	94
66.3846	89
66.6213	92
66.858	85
67.0946	96
67.3313	103
67.5679	85
67.8046	97
68.0412	94
68.2779	105
68.5146	109
68.7512	119
68.9879	102
69.2245	111
69.4612	115
69.6978	153
69.9345	123
70.1711	112
70.4078	112
70.6445	96
70.8811	125
71.1178	102
71.3544	135
71.5911	125
71.8277	216
72.0644	194
72.3011	146
72.5377	97
72.7744	115
73.011	117
73.2477	103
73.4843	118
73.721	121
73.9577	140
74.1943	110
74.431	105
74.6676	109
74.9043	122
75.1409	124
75.3776	113
75.6142	119
75.8509	98
76.0876	121
76.3242	132
76.5609	87
76.7975	120
77.0342	118
77.2708	111
77.5075	138
77.7442	127
77.9808	112
78.2175	110
78.4541	109
78.6908	93
78.9274	134
79.1641	117
79.4007	115
79.6374	103
79.8741	118
80.1107	106
80.3474	94
80.584	134
80.8207	113
81.0573	94
81.294	109
81.5307	130
81.7673	127
82.004	85
82.2406	122
82.4773	120
82.7139	156
82.9506	157
83.1873	117
83.4239	107
83.6606	106
83.8972	109
84.1339	107
84.3705	109
84.6072	112
84.8438	142
85.0805	109
85.3172	100
85.5538	114
85.7905	103
86.0271	93
86.2638	104
86.5004	111
86.7371	105
86.9738	105
87.2104	89
87.4471	112
87.6837	98
87.9204	125
88.157	118
88.3937	90
88.6303	108
88.867	113
89.1037	97
89.3403	97
89.577	137
89.8136	120
89.9911	113