File: XRD/800-1.uxd
;content of D:\data\result\mecham\???\20231225-89741\800-1.raw - (Diffrac Plus V4 file)
_FILEVERSION = 3
_SAMPLE
_+SAMPLE
_USER = Lab Manager
_GONIOMETER_CODE = 21
_STAGE_CODE = 7
; Goniometer : D8 theta/theta, stage : Chi drive
_SAMPLE_CHANGER_CODE = 0
_ATTACHMENTS_CODE = 0
_GONIOMETER_RADIUS = 280
_MONOCHROMATOR = 0
; Incident beam monochromator : None
_BETA_FILTER = N
_ANALYZER_CODE = 0
; Received beam analyzer : None
_DATEMEASURED = 25-Dec-2023 11:42:07
_RUNTIME = 11.1886
_WL_UNIT = A
_WL1 = 1.5406
_WL2 = 1.54439
_WL3 = 1.39222
_WLRATIO = 0.5
_ANODE = Cu
_V4_INF_USER = Lab Manager
_V4_INF_CREATOR = V5Converter
_V4_INF_CREATOR_VERSION = 4.4.16.0

; Data for range 1
_DRIVE = COUPLED
_STEPTIME = 57.6
_STEPSIZE = 0.019721
_STEPMODE = C
_START = 20
_THETA = 10
_2THETA = 20
_KHI = 0
_PHI = 0
_DETECTORSLIT = out
_AUX1 = 0
_TIMESTARTED = 0
_KV = 40
_MA = 40
_RANGE_WL = 1.5406
_3DPLANE = 0
_V4_PSD2THETA = 9999
_V4_PSDCHANNEL1 = 0
_V4_PSDAPERTURE = 2.839876
_V4_PSDTYPE = 5
_V4_PSDFIXED = 0
_V4_COUNTERS_MASK = 1
_V4_DRIVES_MASK = 0
_V4_ENCODERS_MASK = 0
_2THETACOUNTS = 1
; 2THETA	Cnt2_D1
20	185
20.2367	146
20.4733	165
20.71	170
20.9466	165
21.1833	159
21.4199	159
21.6566	185
21.8933	160
22.1299	186
22.3666	175
22.6032	184
22.8399	164
23.0765	170
23.3132	170
23.5498	165
23.7865	175
24.0232	171
24.2598	223
24.4965	345
24.7331	181
24.9698	140
25.2064	161
25.4431	170
25.6798	159
25.9164	185
26.1531	170
26.3897	171
26.6264	129
26.863	164
27.0997	157
27.3363	167
27.573	152
27.8097	162
28.0463	176
28.283	157
28.5196	170
28.7563	145
28.9929	167
29.2296	155
29.4663	157
29.7029	163
29.9396	242
30.1762	172
30.4129	156
30.6495	158
30.8862	139
31.1228	147
31.3595	164
31.5962	151
31.8328	158
32.0695	165
32.3061	156
32.5428	139
32.7794	152
33.0161	164
33.2528	235
33.4894	412
33.7261	178
33.9627	166
34.1994	154
34.436	180
34.6727	161
34.9094	167
35.146	297
35.3827	247
35.6193	206
35.856	210
36.0926	256
36.3293	190
36.5659	153
36.8026	154
37.0393	149
37.2759	144
37.5126	164
37.7492	146
37.9859	145
38.2225	154
38.4592	149
38.6959	147
38.9325	156
39.1692	144
39.4058	151
39.6425	159
39.8791	154
40.1158	153
40.3524	164
40.5891	160
40.8258	150
41.0624	164
41.2991	187
41.5357	195
41.7724	171
42.009	154
42.2457	161
42.4824	199
42.719	168
42.9557	192
43.1923	180
43.429	227
43.6656	1779
43.9023	2707
44.1389	232
44.3756	221
44.6123	173
44.8489	163
45.0856	163
45.3222	169
45.5589	154
45.7955	156
46.0322	146
46.2689	137
46.5055	124
46.7422	163
46.9788	169
47.2155	153
47.4521	147
47.6888	163
47.9255	155
48.1621	138
48.3988	144
48.6354	141
48.8721	134
49.1087	129
49.3454	144
49.582	161
49.8187	151
50.0554	166
50.292	189
50.5287	194
50.7653	487
51.002	1860
51.2386	397
51.4753	183
51.712	163
51.9486	162
52.1853	156
52.4219	155
52.6586	161
52.8952	143
53.1319	125
53.3685	149
53.6052	140
53.8419	123
54.0785	143
54.3152	158
54.5518	221
54.7885	173
55.0251	163
55.2618	165
55.4985	130
55.7351	136
55.9718	140
56.2084	144
56.4451	158
56.6817	151
56.9184	146
57.155	127
57.3917	133
57.6284	134
57.865	159
58.1017	130
58.3383	134
58.575	111
58.8116	126
59.0483	157
59.285	139
59.5216	133
59.7583	131
59.9949	172
60.2316	153
60.4682	136
60.7049	125
60.9416	142
61.1782	123
61.4149	134
61.6515	149
61.8882	148
62.1248	160
62.3615	126
62.5981	145
62.8348	162
63.0715	135
63.3081	164
63.5448	148
63.7814	133
64.0181	143
64.2547	132
64.4914	167
64.7281	147
64.9647	164
65.2014	149
65.438	150
65.6747	133
65.9113	139
66.148	155
66.3846	131
66.6213	169
66.858	134
67.0946	133
67.3313	141
67.5679	145
67.8046	146
68.0412	137
68.2779	150
68.5146	148
68.7512	139
68.9879	160
69.2245	163
69.4612	146
69.6978	147
69.9345	150
70.1711	137
70.4078	147
70.6445	137
70.8811	144
71.1178	162
71.3544	150
71.5911	134
71.8277	147
72.0644	156
72.3011	134
72.5377	168
72.7744	164
73.011	165
73.2477	163
73.4843	140
73.721	157
73.9577	155
74.1943	164
74.431	167
74.6676	238
74.9043	697
75.1409	431
75.3776	182
75.6142	164
75.8509	154
76.0876	148
76.3242	156
76.5609	166
76.7975	150
77.0342	168
77.2708	165
77.5075	170
77.7442	148
77.9808	165
78.2175	143
78.4541	152
78.6908	183
78.9274	156
79.1641	138
79.4007	130
79.6374	176
79.8741	160
80.1107	139
80.3474	142
80.584	167
80.8207	167
81.0573	171
81.294	137
81.5307	153
81.7673	148
82.004	143
82.2406	145
82.4773	177
82.7139	140
82.9506	153
83.1873	135
83.4239	182
83.6606	175
83.8972	165
84.1339	145
84.3705	161
84.6072	141
84.8438	156
85.0805	143
85.3172	171
85.5538	170
85.7905	140
86.0271	151
86.2638	148
86.5004	165
86.7371	156
86.9738	146
87.2104	135
87.4471	137
87.6837	128
87.9204	157
88.157	143
88.3937	159
88.6303	155
88.867	133
89.1037	140
89.3403	134
89.577	144
89.8136	156
89.9911	161