File: XRD/800-1.txt
?
20.0     6
20.23665 11
20.47331 19
20.70996 8
20.94662 2
21.18328 6
21.41993 13
21.65659 15
21.89325 4
22.12990 13
22.36656 10
22.60322 21
22.83987 10
23.07653 10
23.31318 8
23.54984 10
23.78650 12
24.02315 16
24.25981 67
24.49647 97
24.73312 16
24.96978 16
25.20644 12
25.44309 16
25.67975 8
25.91640 20
26.15306 15
26.38972 20
26.62637 13
26.86303 15
27.09969 16
27.33634 20
27.57300 11
27.80966 20
28.04631 14
28.28297 21
28.51963 24
28.75628 11
28.99294 25
29.22959 14
29.46625 26
29.70291 23
29.93956 60
30.17622 24
30.41288 18
30.64953 13
30.88619 21
31.12285 12
31.35950 16
31.59616 19
31.83281 10
32.06947 13
32.30613 13
32.54278 13
32.77944 15
33.01610 20
33.25275 72
33.48941 157
33.72607 51
33.96272 22
34.19938 19
34.43603 17
34.67269 14
34.90935 26
35.14600 122
35.38266 69
35.61932 35
35.85597 64
36.09263 76
36.32928 34
36.56594 13
36.80260 23
37.03926 9
37.27591 5
37.51257 17
37.74922 22
37.98588 12
38.22254 6
38.45919 24
38.69585 12
38.93251 9
39.16916 23
39.40582 8
39.64247 16
39.87913 18
40.11579 6
40.35244 8
40.58910 5
40.82576 4
41.06241 23
41.29907 36
41.53572 17
41.77238 20
42.00904 12
42.24570 12
42.48235 31
42.71901 41
42.95566 25
43.19232 25
43.42898 79
43.66563 1560
43.90229 401
44.13895 65
44.37560 65
44.61226 26
44.84891 17
45.08557 17
45.32223 13
45.55888 10
45.79554 8
46.0322  0
46.26885 4
46.50551 14
46.74217 7
46.97882 9
47.21548 12
47.45214 8
47.68879 14
47.92545 8
48.16210 13
48.39876 5
48.63542 6
48.87207 6
49.10873 1
49.34539 20
49.58204 19
49.81870 23
50.05535 14
50.29201 33
50.52867 63
50.76532 315
51.00198 1266
51.23864 108
51.47529 21
51.71195 24
51.94861 14
52.18526 17
52.42192 17
52.65858 10
52.89523 22
53.13189 19
53.36854 23
53.60520 17
53.84186 15
54.07851 24
54.31517 32
54.55183 57
54.78848 31
55.02514 11
55.26179 19
55.49845 9
55.73511 8
55.97176 12
56.20842 19
56.44508 22
56.68174 22
56.91839 20
57.15505 8
57.39170 15
57.62836 10
57.86502 21
58.10167 3
58.33833 10
58.57498 23
58.81164 7
59.04830 21
59.28495 18
59.52161 12
59.75827 9
59.99492 19
60.23158 9
60.46823 8
60.70489 6
60.94155 18
61.17820 7
61.41486 26
61.65152 18
61.88818 28
62.12483 28
62.36149 17
62.59814 22
62.83480 31
63.07146 6
63.30811 25
63.54477 12
63.78142 11
64.01808 6
64.25474 19
64.49140 24
64.72805 19
64.96471 19
65.20137 26
65.43802 12
65.67468 14
65.91133 14
66.14799 16
66.38465 16
66.62130 28
66.85796 21
67.09462 21
67.33127 19
67.56793 27
67.80458 12
68.04124 8
68.27790 32
68.51455 14
68.75121 8
68.98786 23
69.22452 13
69.46118 19
69.69783 12
69.93449 26
70.17115 8
70.40780 16
70.64446 15
70.88111 8
71.11777 21
71.35443 16
71.59108 6
71.82774 13
72.0644  22
72.30105 8
72.53771 18
72.77436 20
73.01102 19
73.24768 19
73.48434 13
73.72100 16
73.95765 11
74.19431 23
74.43096 17
74.66762 106
74.90428 500
75.14093 50
75.37759 19
75.61425 16
75.85090 5
76.08756 13
76.32421 10
76.56087 9
76.79753 13
77.03418 14
77.27084 23
77.5075  7
77.74415 12
77.98081 16
78.21746 6
78.45412 20
78.69078 16
78.92743 16
79.16409 5
79.40074 8
79.63740 23
79.87406 11
80.11071 5
80.34737 15
80.58403 17
80.82068 25
81.05734 23
81.29399 13
81.53065 19
81.76731 25
82.00396 8
82.24062 25
82.47728 26
82.71393 16
82.95059 28
83.18725 11
83.42391 29
83.66056 23
83.89722 25
84.13388 14
84.37053 23
84.60719 19
84.84384 11
85.08050 24
85.31716 19
85.55381 19
85.79047 8
86.02713 25
86.26378 19
86.50044 21
86.73709 22
86.97375 15
87.21041 17
87.44706 12
87.68372 10
87.92038 18
88.15703 15
88.39369 23
88.63034 20
88.86700 0
89.10366 18
89.34031 12
89.57697 32
89.81362 19
89.99111 19