File: XRD/800-X.txt
?
20.0     12
20.23665 9
20.47331 7
20.70996 13
20.94662 9
21.18328 6
21.41993 8
21.65659 13
21.89325 11
22.12990 8
22.36656 8
22.60322 15
22.83987 13
23.07653 9
23.31318 7
23.54984 7
23.78650 10
24.02315 24
24.25981 224
24.49647 10
24.73312 19
24.96978 13
25.20644 11
25.44309 7
25.67975 16
25.91640 7
26.15306 11
26.38972 7
26.62637 10
26.86303 11
27.09969 0
27.33634 14
27.57300 3
27.80966 4
28.04631 5
28.28297 5
28.51963 9
28.75628 5
28.99294 11
29.22959 11
29.46625 16
29.70291 4
29.93956 9
30.17622 17
30.41288 12
30.64953 8
30.88619 16
31.12285 21
31.35950 12
31.59616 17
31.83281 9
32.06947 19
32.30613 13
32.54278 16
32.77944 20
33.01610 68
33.25275 1784
33.48941 49
33.72607 9
33.96272 18
34.19938 15
34.43603 9
34.67269 12
34.90935 18
35.14600 13
35.38266 74
35.61932 120
35.85597 10
36.09263 12
36.32928 12
36.56594 14
36.80260 7
37.03926 13
37.27591 14
37.51257 4
37.74922 5
37.98588 9
38.22254 15
38.45919 4
38.69585 10
38.93251 9
39.16916 13
39.40582 11
39.64247 5
39.87913 5
40.11579 8
40.35244 11
40.58910 8
40.82576 96
41.06241 27
41.29907 10
41.53572 11
41.77238 10
42.00904 9
42.24570 11
42.48235 12
42.71901 2
42.95566 9
43.19232 23
43.42898 10
43.66563 13
43.90229 11
44.13895 13
44.37560 10
44.61226 6
44.84891 10
45.08557 9
45.32223 3
45.55888 10
45.79554 9
46.0322  7
46.26885 6
46.50551 10
46.74217 7
46.97882 6
47.21548 5
47.45214 8
47.68879 14
47.92545 10
48.16210 16
48.39876 8
48.63542 11
48.87207 10
49.10873 11
49.34539 110
49.58204 70
49.81870 6
50.05535 9
50.29201 6
50.52867 6
50.76532 7
51.00198 1
51.23864 6
51.47529 2
51.71195 9
51.94861 10
52.18526 5
52.42192 5
52.65858 6
52.89523 7
53.13189 6
53.36854 16
53.60520 23
53.84186 22
54.07851 369
54.31517 16
54.55183 16
54.78848 6
55.02514 9
55.26179 8
55.49845 13
55.73511 8
55.97176 19
56.20842 7
56.44508 11
56.68174 13
56.91839 56
57.15505 23
57.39170 18
57.62836 91
57.86502 13
58.10167 14
58.33833 9
58.57498 10
58.81164 7
59.04830 12
59.28495 11
59.52161 11
59.75827 3
59.99492 11
60.23158 9
60.46823 10
60.70489 11
60.94155 9
61.17820 8
61.41486 8
61.65152 12
61.88818 16
62.12483 16
62.36149 114
62.59814 66
62.83480 15
63.07146 3
63.30811 10
63.54477 14
63.78142 11
64.01808 27
64.25474 7
64.49140 9
64.72805 13
64.96471 9
65.20137 11
65.43802 18
65.67468 18
65.91133 8
66.14799 7
66.38465 13
66.62130 19
66.85796 7
67.09462 11
67.33127 13
67.56793 4
67.80458 4
68.04124 19
68.27790 12
68.51455 9
68.75121 15
68.98786 12
69.22452 19
69.46118 18
69.69783 29
69.93449 14
70.17115 10
70.40780 14
70.64446 12
70.88111 19
71.11777 14
71.35443 14
71.59108 19
71.82774 98
72.0644  29
72.30105 32
72.53771 15
72.77436 2
73.01102 14
73.24768 13
73.48434 10
73.72100 17
73.95765 22
74.19431 12
74.43096 11
74.66762 4
74.90428 22
75.14093 22
75.37759 5
75.61425 15
75.85090 8
76.08756 14
76.32421 13
76.56087 10
76.79753 18
77.03418 6
77.27084 7
77.5075  21
77.74415 12
77.98081 9
78.21746 3
78.45412 14
78.69078 3
78.92743 15
79.16409 14
79.40074 10
79.63740 6
79.87406 8
80.11071 3
80.34737 5
80.58403 16
80.82068 25
81.05734 6
81.29399 10
81.53065 7
81.76731 9
82.00396 9
82.24062 17
82.47728 9
82.71393 35
82.95059 48
83.18725 12
83.42391 15
83.66056 6
83.89722 19
84.13388 11
84.37053 17
84.60719 16
84.84384 39
85.08050 8
85.31716 11
85.55381 24
85.79047 15
86.02713 19
86.26378 24
86.50044 13
86.73709 19
86.97375 13
87.21041 4
87.44706 23
87.68372 13
87.92038 23
88.15703 21
88.39369 8
88.63034 30
88.86700 15
89.10366 3
89.34031 12
89.57697 39
89.81362 32
89.99111 18